Type;FSW-26;
Version;4.70SP1;
Date;05.Nov 2021;
Mode;PNoise;
Signal Frequency;6800000000.000000;Hz
Signal Level;-14.200000;dBm
Rf Att;0.000000;dB
Coupling;AC;
Preamplifier;OFF;
Verify Frequency;ON;
Frequency Tolerance Relative;10.000000;%
Frequency Tolerance Absolute;1000.000000;Hz
Frequency Tracking;ON;
Verify Level;ON;
Level Tolerance;10.000000;dB
Level Tracking;ON;
AM Rejection;OFF;
Max Frequency Drift;0.060000;Hz
Digital PLL;ON;
Decimation;ON;
Online I/Q;OFF;
Spur Removal;OFF;
Start;1.000000;Hz
Stop;1000000.000000;Hz
AVG Multiplier State;OFF;
SubSweep;1;
Start;1.000000;Hz
Stop;3.000000;Hz
RBW;0.030000;Hz
Sweep Count;50;
Sweep Mode;I/Q FFT;
IQ Window;Blackman-Harris;
SubSweep;2;
Start;3.000000;Hz
Stop;10.000000;Hz
RBW;0.100000;Hz
Sweep Count;50;
Sweep Mode;I/Q FFT;
IQ Window;Blackman-Harris;
SubSweep;3;
Start;10.000000;Hz
Stop;30.000000;Hz
RBW;0.300000;Hz
Sweep Count;50;
Sweep Mode;I/Q FFT;
IQ Window;Blackman-Harris;
SubSweep;4;
Start;30.000000;Hz
Stop;100.000000;Hz
RBW;1.000000;Hz
Sweep Count;50;
Sweep Mode;Swept;
IQ Window;Swept Gaussian;
SubSweep;5;
Start;100.000000;Hz
Stop;300.000000;Hz
RBW;3.000000;Hz
Sweep Count;50;
Sweep Mode;Swept;
IQ Window;Swept Gaussian;
SubSweep;6;
Start;300.000000;Hz
Stop;1000.000000;Hz
RBW;10.000000;Hz
Sweep Count;50;
Sweep Mode;Swept;
IQ Window;Swept Gaussian;
SubSweep;7;
Start;1000.000000;Hz
Stop;3000.000000;Hz
RBW;30.000000;Hz
Sweep Count;50;
Sweep Mode;Swept;
IQ Window;Swept Gaussian;
SubSweep;8;
Start;3000.000000;Hz
Stop;10000.000000;Hz
RBW;100.000000;Hz
Sweep Count;50;
Sweep Mode;Swept;
IQ Window;Swept Gaussian;
SubSweep;9;
Start;10000.000000;Hz
Stop;30000.000000;Hz
RBW;300.000000;Hz
Sweep Count;50;
Sweep Mode;Swept;
IQ Window;Swept Gaussian;
SubSweep;10;
Start;30000.000000;Hz
Stop;100000.000000;Hz
RBW;1000.000000;Hz
Sweep Count;50;
Sweep Mode;Swept;
IQ Window;Swept Gaussian;
SubSweep;11;
Start;100000.000000;Hz
Stop;300000.000000;Hz
RBW;3000.000000;Hz
Sweep Count;50;
Sweep Mode;Swept;
IQ Window;Swept Gaussian;
SubSweep;12;
Start;300000.000000;Hz
Stop;1000000.000000;Hz
RBW;10000.000000;Hz
Sweep Count;50;
Sweep Mode;Swept;
IQ Window;Swept Gaussian;
Window;1;Phase Noise
Trace;2;
Trace Mode;CLR/WRITE;
Smoothing;OFF;
Smoothing Type;Linear;
Smoothing Value;1;%
Spur Removal;OFF;
x-Unit;Hz;
y-Unit;dBc/Hz;
Values;1231;
1.000000;-54.772346;
1.001059;-54.823826;
1.016949;-55.259785;
1.032839;-55.186985;
1.048729;-54.595852;
1.064619;-53.981911;
1.080508;-53.635590;
1.096398;-54.250374;
1.112288;-55.012943;
1.128178;-55.765900;
1.144068;-55.945045;
1.159958;-55.591644;
1.175848;-54.546707;
1.191737;-54.408272;
1.207627;-54.743877;
1.223517;-55.402054;
1.239407;-56.853729;
1.255297;-57.301376;
1.271186;-56.188290;
1.287076;-55.025166;
1.302966;-54.256916;
1.318856;-53.637653;
1.334746;-54.608494;
1.350636;-56.326103;
1.366525;-57.311623;
1.382415;-57.355659;
1.398305;-56.399776;
1.414195;-55.013882;
1.430085;-54.757191;
1.445975;-55.425976;
1.461864;-55.903248;
1.477754;-57.394287;
1.493644;-59.011829;
1.509534;-57.460934;
1.525424;-55.664219;
1.541314;-55.505318;
1.557203;-55.367016;
1.573093;-56.021206;
1.588983;-57.652443;
1.604873;-58.229092;
1.620763;-58.408749;
1.636653;-58.356972;
1.652542;-57.009075;
1.668432;-56.351051;
1.684322;-56.840527;
1.700212;-57.249138;
1.716102;-57.870003;
1.731992;-58.218174;
1.747881;-58.198616;
1.763771;-57.371727;
1.779661;-57.117683;
1.795551;-57.974522;
1.811441;-58.194260;
1.827331;-58.610622;
1.843220;-58.657005;
1.859110;-57.675831;
1.875000;-56.053101;
1.890890;-55.438763;
1.906780;-55.137470;
1.922670;-55.689270;
1.938559;-57.369671;
1.954449;-58.351486;
1.970339;-58.157150;
1.986229;-57.625854;
2.002119;-56.887794;
2.018008;-56.269970;
2.033898;-56.242485;
2.049788;-56.093899;
2.065678;-56.724754;
2.081568;-57.141518;
2.097458;-56.795692;
2.113348;-55.910858;
2.129237;-55.565125;
2.145127;-56.122448;
2.161017;-56.120815;
2.176907;-56.032379;
2.192797;-56.533684;
2.208687;-56.075920;
2.224576;-55.064171;
2.240466;-54.992126;
2.256356;-55.134708;
2.272246;-55.579014;
2.288136;-56.500916;
2.304025;-56.931820;
2.319915;-56.795795;
2.335805;-56.560741;
2.351695;-56.026226;
2.367585;-55.531525;
2.383475;-55.975903;
2.399364;-56.159657;
2.415254;-56.541592;
2.431144;-57.326248;
2.447034;-57.263191;
2.462924;-56.920715;
2.478814;-57.062256;
2.494704;-57.013733;
2.510593;-57.496223;
2.526483;-58.385403;
2.542373;-58.498238;
2.558263;-58.313389;
2.574153;-57.657333;
2.590042;-57.487251;
2.605932;-57.679840;
2.621822;-58.010303;
2.637712;-57.783077;
2.653602;-57.871769;
2.669492;-58.226585;
2.685381;-58.223297;
2.701271;-58.625534;
2.717161;-59.162289;
2.733051;-59.711205;
2.748941;-59.816547;
2.764831;-59.715672;
2.780720;-59.331059;
2.796610;-59.355892;
2.812500;-59.020359;
2.828390;-58.874065;
2.844280;-59.211956;
2.860170;-59.174152;
2.876059;-58.737701;
2.891949;-58.698570;
2.907839;-58.821861;
2.923729;-58.818218;
2.939619;-59.289795;
2.955508;-59.225643;
2.971398;-59.093262;
2.987288;-59.877289;
3.000000;-60.198772;
3.019068;-61.475010;
3.072034;-61.370895;
3.125000;-60.746475;
3.177966;-61.071774;
3.230932;-61.195496;
3.283898;-61.585236;
3.336864;-62.032833;
3.389831;-62.090069;
3.442797;-62.813091;
3.495763;-62.955833;
3.548729;-63.490978;
3.601695;-63.999165;
3.654661;-64.500870;
3.707627;-64.429787;
3.760593;-64.482407;
3.813560;-65.276825;
3.866525;-66.175163;
3.919492;-67.221756;
3.972458;-67.931641;
4.025424;-67.488388;
4.078390;-67.146370;
4.131356;-66.807861;
4.184322;-66.094292;
4.237288;-66.852806;
4.290254;-67.249130;
4.343220;-67.625679;
4.396186;-68.426636;
4.449152;-68.456413;
4.502119;-67.739975;
4.555085;-66.451599;
4.608051;-65.585747;
4.661017;-66.102943;
4.713983;-66.928345;
4.766949;-66.869049;
4.819915;-66.655060;
4.872881;-66.905441;
4.925848;-67.339249;
4.978814;-68.029221;
5.031780;-67.892357;
5.084746;-67.523697;
5.137712;-67.568932;
5.190678;-67.649597;
5.243644;-68.501076;
5.296610;-68.596588;
5.349576;-68.303322;
5.402543;-68.083130;
5.455509;-67.583267;
5.508475;-67.963669;
5.561441;-67.902359;
5.614407;-67.311470;
5.667373;-66.762268;
5.720339;-66.812225;
5.773305;-66.617523;
5.826272;-66.735550;
5.879238;-67.150970;
5.932203;-67.085083;
5.985169;-67.361481;
6.038136;-67.498756;
6.091102;-67.469124;
6.144068;-67.534218;
6.197034;-67.754692;
6.250000;-68.081749;
6.302966;-68.181099;
6.355932;-67.999359;
6.408898;-68.671288;
6.461864;-69.821655;
6.514831;-69.685539;
6.567797;-69.152794;
6.620763;-69.124504;
6.673729;-68.685326;
6.726695;-68.430199;
6.779661;-68.872025;
6.832627;-69.199310;
6.885593;-69.332649;
6.938560;-69.665016;
6.991526;-69.547806;
7.044492;-69.085258;
7.097458;-69.481354;
7.150424;-70.600037;
7.203390;-70.771751;
7.256356;-70.439278;
7.309322;-70.664627;
7.362288;-70.346436;
7.415255;-70.246109;
7.468221;-70.721283;
7.521187;-71.227486;
7.574153;-72.330704;
7.627119;-73.377632;
7.680085;-73.301979;
7.733051;-72.111130;
7.786017;-72.279724;
7.838983;-73.014488;
7.891949;-72.600281;
7.944915;-72.495949;
7.997881;-72.271088;
8.050848;-72.164474;
8.103814;-72.201134;
8.156780;-72.291145;
8.209746;-72.697182;
8.262712;-73.204582;
8.315679;-73.156036;
8.368645;-72.771698;
8.421611;-72.692932;
8.474577;-72.275131;
8.527542;-71.078224;
8.580508;-70.728706;
8.633474;-71.794472;
8.686440;-72.715569;
8.739407;-72.687950;
8.792373;-72.921654;
8.845339;-72.611603;
8.898305;-72.597649;
8.951271;-73.159187;
9.004237;-73.497475;
9.057203;-74.222519;
9.110169;-74.101990;
9.163136;-73.728363;
9.216102;-73.825020;
9.269068;-74.129341;
9.322034;-74.047745;
9.375000;-74.196335;
9.427966;-74.212906;
9.480932;-73.977425;
9.533898;-73.625366;
9.586864;-74.030319;
9.639831;-74.524864;
9.692797;-74.354828;
9.745763;-73.774490;
9.798729;-72.742928;
9.851695;-72.439857;
9.904661;-72.397926;
9.957627;-72.530861;
10.000000;-73.104500;
10.010593;-73.978233;
10.169492;-74.132065;
10.328390;-74.011650;
10.487288;-74.055023;
10.646187;-74.082542;
10.805085;-74.335976;
10.963984;-74.621033;
11.122882;-75.037086;
11.281780;-75.247505;
11.440679;-75.046265;
11.599577;-75.635521;
11.758475;-76.690979;
11.917373;-76.489006;
12.076271;-75.398705;
12.235169;-75.630714;
12.394068;-76.218361;
12.552966;-76.265717;
12.711864;-76.454796;
12.870763;-76.418365;
13.029661;-76.000175;
13.188560;-75.702522;
13.347458;-76.060463;
13.506356;-76.062248;
13.665255;-75.553223;
13.824153;-75.954132;
13.983051;-76.660759;
14.141950;-77.988602;
14.300848;-78.777466;
14.459746;-78.665421;
14.618645;-78.377815;
14.777543;-77.436714;
14.936441;-77.029388;
15.095340;-78.043907;
15.254238;-77.614258;
15.413136;-76.330025;
15.572034;-76.262138;
15.730932;-76.491196;
15.889831;-76.673157;
16.048729;-77.737938;
16.207628;-78.512474;
16.366526;-77.545021;
16.525425;-77.123329;
16.684322;-77.826019;
16.843222;-77.874847;
17.002119;-76.792877;
17.161016;-75.921333;
17.319916;-76.163544;
17.478813;-76.457939;
17.637712;-76.877510;
17.796610;-77.322014;
17.955509;-77.134003;
18.114407;-78.140526;
18.273306;-78.710564;
18.432203;-77.813484;
18.591103;-77.498131;
18.750000;-78.119698;
18.908899;-78.622063;
19.067797;-78.847191;
19.226696;-78.956848;
19.385593;-79.004410;
19.544493;-78.875206;
19.703390;-79.175041;
19.862289;-79.874298;
20.021187;-80.879608;
20.180086;-80.560890;
20.338984;-79.649765;
20.497881;-78.882675;
20.656780;-78.101067;
20.815678;-78.009590;
20.974577;-78.493370;
21.133474;-78.989952;
21.292374;-79.769798;
21.451271;-79.723030;
21.610170;-78.920479;
21.769068;-79.172089;
21.927967;-78.923759;
22.086864;-77.603737;
22.245764;-76.859680;
22.404661;-77.298950;
22.563560;-74.495247;
22.722458;-69.246078;
22.881357;-65.873917;
23.040255;-64.842880;
23.199154;-64.104340;
23.358051;-65.865448;
23.516951;-71.422783;
23.675848;-76.089066;
23.834745;-77.815063;
23.993645;-78.814423;
24.152542;-80.326515;
24.311441;-81.242035;
24.470339;-79.918930;
24.629238;-79.080978;
24.788136;-79.562965;
24.947035;-80.117966;
25.105932;-80.647293;
25.264832;-81.103386;
25.423729;-81.331757;
25.582628;-81.534950;
25.741526;-81.822731;
25.900425;-80.659081;
26.059322;-78.888565;
26.218222;-78.815430;
26.377119;-79.741875;
26.536018;-79.922630;
26.694916;-79.145866;
26.853815;-78.260994;
27.012712;-75.847366;
27.171610;-71.015732;
27.330509;-66.028862;
27.489407;-63.445091;
27.648306;-63.240757;
27.807203;-62.606018;
27.966103;-63.151608;
28.125000;-66.872841;
28.283899;-71.564285;
28.442797;-74.579468;
28.601696;-77.554123;
28.760593;-79.762070;
28.919493;-81.156677;
29.078390;-81.784882;
29.237289;-81.991074;
29.396187;-81.253807;
29.555086;-81.459343;
29.713984;-82.116516;
29.872883;-82.080345;
30.000000;-81.919418;
30.172066;-82.810036;
30.921053;-82.496582;
31.670040;-82.413040;
32.419029;-83.181961;
33.168015;-83.645515;
33.917004;-83.110016;
34.665993;-82.417007;
35.414978;-83.036743;
36.163967;-82.694710;
36.912956;-82.484612;
37.661942;-83.209175;
38.410931;-83.151276;
39.159920;-83.544075;
39.908905;-84.132813;
40.657894;-84.678314;
41.406883;-83.771980;
42.155869;-82.947525;
42.904858;-83.872627;
43.653847;-85.143341;
44.402832;-84.524590;
45.151821;-83.646332;
45.900810;-83.035225;
46.649796;-83.432686;
47.398785;-84.774300;
48.147774;-85.846138;
48.896759;-82.314255;
49.645748;-66.405067;
50.394737;-61.402100;
51.143723;-67.289787;
51.892712;-84.105881;
52.641701;-85.404053;
53.390686;-85.336914;
54.139675;-85.090538;
54.888664;-84.883568;
55.637650;-85.815575;
56.386635;-86.795624;
57.135628;-86.148994;
57.884613;-86.312088;
58.633598;-86.341827;
59.382591;-86.589348;
60.131577;-86.518051;
60.880562;-87.158485;
61.629555;-86.964058;
62.378540;-86.714798;
63.127525;-86.797607;
63.876518;-87.282104;
64.625504;-87.167412;
65.374489;-87.686935;
66.123482;-88.248802;
66.872467;-87.232300;
67.621452;-86.495499;
68.370445;-87.090416;
69.119431;-86.781693;
69.868416;-87.083389;
70.617409;-87.106705;
71.366394;-86.903572;
72.115379;-86.957375;
72.864372;-87.772438;
73.613358;-87.004066;
74.362343;-87.038025;
75.111336;-87.126472;
75.860321;-87.349167;
76.609306;-87.597275;
77.358299;-87.747742;
78.107285;-87.208832;
78.856270;-87.227547;
79.605263;-88.353264;
80.354248;-89.264412;
81.103233;-88.942520;
81.852226;-88.201714;
82.601212;-88.477509;
83.350197;-88.579460;
84.099190;-88.003647;
84.848175;-88.824028;
85.597160;-88.810577;
86.346146;-88.440369;
87.095139;-88.541138;
87.844124;-89.407974;
88.593109;-90.417091;
89.342102;-89.180771;
90.091087;-88.843925;
90.840073;-89.001984;
91.589066;-89.458290;
92.338051;-89.884308;
93.087036;-90.101135;
93.836029;-89.049896;
94.585014;-88.921616;
95.334000;-88.814117;
96.082993;-89.237206;
96.831978;-90.317879;
97.580963;-90.232674;
98.329956;-90.767502;
99.078941;-73.392410;
99.827927;-60.295067;
100.000000;-59.841904;
100.338715;-62.960079;
102.553413;-71.070374;
104.768112;-89.002907;
106.982803;-89.842087;
109.197495;-88.772156;
111.412193;-88.254570;
113.626892;-89.682327;
115.841583;-90.341545;
118.056274;-89.860619;
120.270973;-89.905769;
122.485672;-90.180687;
124.700363;-89.605812;
126.915054;-90.235222;
129.129761;-90.740784;
131.344452;-91.444954;
133.559143;-91.973534;
135.773834;-91.352089;
137.988525;-91.296761;
140.203232;-92.043610;
142.417923;-91.984489;
144.632614;-92.928391;
146.847321;-90.187508;
149.062012;-81.799789;
151.276703;-83.146408;
153.491394;-92.499779;
155.706085;-93.439339;
157.920792;-92.143471;
160.135483;-92.339592;
162.350174;-92.502350;
164.564880;-92.590553;
166.779572;-92.421921;
168.994263;-92.870178;
171.208954;-94.270584;
173.423645;-94.176193;
175.638351;-92.782928;
177.853043;-92.653534;
180.067734;-93.567375;
182.282440;-94.950073;
184.497131;-94.555855;
186.711823;-93.902290;
188.926514;-94.131165;
191.141205;-94.762115;
193.355911;-94.697403;
195.570602;-90.758224;
197.785294;-74.396027;
200.000000;-69.696747;
202.214691;-76.273331;
204.429382;-93.561913;
206.644073;-96.381714;
208.858765;-94.925385;
211.073471;-94.929176;
213.288162;-95.362175;
215.502853;-95.203476;
217.717545;-95.551247;
219.932251;-95.926277;
222.146942;-90.317039;
224.361633;-79.540031;
226.576340;-79.187820;
228.791031;-89.510345;
231.005722;-95.836121;
233.220413;-95.388763;
235.435104;-96.038445;
237.649811;-95.871964;
239.864502;-96.136734;
242.079193;-96.564171;
244.293900;-96.312767;
246.508591;-94.916931;
248.723282;-86.713097;
250.937973;-86.835655;
253.152664;-95.903580;
255.367371;-97.301376;
257.582062;-96.532005;
259.796753;-96.624878;
262.011475;-96.881866;
264.226135;-97.220879;
266.440857;-97.134262;
268.655518;-96.593765;
270.870239;-96.652863;
273.084930;-98.174576;
275.299622;-97.808151;
277.514313;-96.824844;
279.729004;-97.504044;
281.943726;-97.783699;
284.158386;-97.488991;
286.373108;-96.916420;
288.587769;-97.346542;
290.802490;-97.814667;
293.017181;-97.949760;
295.231873;-100.014938;
297.446594;-89.435959;
299.661255;-82.993935;
300.000000;-83.734673;
301.720642;-88.273697;
309.210510;-95.472298;
316.700378;-99.999977;
324.190277;-99.234665;
331.680145;-100.072250;
339.170013;-99.840477;
346.659912;-98.064888;
354.149780;-98.500610;
361.639648;-100.364594;
369.129517;-100.608360;
376.619415;-101.233406;
384.109283;-101.975876;
391.599182;-101.182297;
399.089050;-100.328545;
406.578918;-101.093857;
414.068787;-101.683372;
421.558685;-101.779488;
429.048553;-102.700905;
436.538452;-102.237427;
444.028320;-101.820740;
451.518188;-103.515160;
459.008057;-103.669426;
466.497955;-104.258308;
473.987823;-103.229797;
481.477722;-102.644539;
488.967590;-102.849297;
496.457458;-103.156082;
503.947327;-104.168633;
511.437225;-104.549011;
518.927124;-104.277618;
526.416992;-104.651550;
533.906860;-104.733025;
541.396729;-104.961288;
548.886597;-104.017593;
556.376465;-101.874733;
563.866333;-103.215111;
571.356201;-104.450989;
578.846130;-104.903305;
586.335999;-105.384979;
593.825867;-105.501945;
601.315796;-105.766319;
608.805664;-106.457520;
616.295532;-106.142258;
623.785400;-105.774727;
631.275269;-105.244530;
638.765137;-106.021469;
646.255005;-107.789223;
653.744873;-106.988014;
661.234741;-102.742546;
668.724670;-98.848671;
676.214539;-103.796600;
683.704407;-107.245796;
691.194336;-106.104622;
698.684204;-105.584366;
706.174072;-105.199989;
713.663940;-105.753983;
721.153809;-106.884590;
728.643677;-107.532051;
736.133545;-107.420975;
743.623413;-107.359779;
751.113281;-107.673965;
758.603210;-107.524475;
766.093079;-107.200409;
773.582947;-107.097832;
781.072815;-106.366364;
788.562683;-106.967278;
796.052612;-107.726624;
803.542480;-108.475136;
811.032349;-108.763084;
818.522217;-108.430542;
826.012085;-107.826942;
833.501953;-108.692604;
840.991882;-108.966766;
848.481750;-108.473022;
855.971619;-108.850677;
863.461487;-107.614120;
870.951355;-108.482437;
878.441223;-109.267036;
885.931152;-109.338295;
893.421021;-108.752213;
900.910889;-108.866241;
908.400757;-108.896858;
915.890625;-109.097198;
923.380493;-109.384819;
930.870422;-110.074333;
938.360291;-110.014687;
945.850159;-109.865860;
953.340027;-109.432724;
960.829895;-109.398018;
968.319763;-109.158539;
975.809692;-108.895226;
983.299561;-109.775452;
990.789429;-110.815834;
998.279297;-110.509193;
1000.000000;-110.358017;
1003.387207;-110.252968;
1025.534180;-109.806488;
1047.681152;-110.459526;
1069.828125;-110.365723;
1091.975098;-110.019844;
1114.122070;-109.687576;
1136.268921;-110.266472;
1158.415894;-111.306030;
1180.562866;-111.839722;
1202.709839;-112.052063;
1224.856812;-112.111946;
1247.003662;-112.013313;
1269.150635;-111.384995;
1291.297607;-111.745171;
1313.444580;-112.448418;
1335.591553;-112.007561;
1357.738525;-112.359001;
1379.885498;-112.153328;
1402.032471;-112.266953;
1424.179321;-112.859833;
1446.326294;-112.376305;
1468.473267;-113.245766;
1490.620239;-113.813499;
1512.767090;-113.105965;
1534.914063;-112.778336;
1557.061035;-112.549461;
1579.208008;-112.392548;
1601.354980;-112.844460;
1623.501953;-113.251350;
1645.648926;-113.837372;
1667.795898;-113.509918;
1689.942871;-114.748787;
1712.089722;-114.849174;
1734.236694;-114.020447;
1756.383667;-113.103561;
1778.530640;-113.221596;
1800.677490;-113.796494;
1822.824463;-115.008392;
1844.971436;-115.015007;
1867.118408;-115.205109;
1889.265381;-115.091171;
1911.412354;-114.147972;
1933.559326;-114.133324;
1955.706177;-113.886818;
1977.853149;-113.799583;
2000.000122;-114.619980;
2022.147095;-114.366127;
2044.294067;-113.864532;
2066.440918;-113.608452;
2088.587891;-114.304947;
2110.734863;-114.694809;
2132.881836;-114.511574;
2155.028809;-115.851204;
2177.175781;-115.887276;
2199.322754;-115.715012;
2221.469727;-115.864922;
2243.616699;-115.774368;
2265.763672;-116.186729;
2287.910645;-116.640999;
2310.057617;-116.733963;
2332.204590;-116.376144;
2354.351563;-115.772018;
2376.498535;-115.771576;
2398.645264;-116.799614;
2420.792236;-116.317535;
2442.939209;-116.370956;
2465.086182;-116.069008;
2487.233154;-115.683113;
2509.380127;-116.064957;
2531.526855;-116.053513;
2553.673828;-116.035133;
2575.820801;-116.113274;
2597.967773;-116.415207;
2620.114746;-116.823250;
2642.261719;-116.836426;
2664.408691;-116.739944;
2686.555664;-117.224976;
2708.702637;-117.262146;
2730.849609;-116.896217;
2752.996582;-116.922539;
2775.143555;-116.670471;
2797.290527;-117.794418;
2819.437500;-117.688454;
2841.584473;-116.770119;
2863.731445;-117.386581;
2885.878418;-117.881264;
2908.025391;-117.240639;
2930.172363;-117.635300;
2952.319336;-117.631187;
2974.466309;-118.001953;
2996.613281;-117.326950;
3000.000000;-117.387093;
3017.206543;-117.348747;
3092.105469;-117.292282;
3167.004150;-117.414063;
3241.902832;-116.490288;
3316.801758;-117.193626;
3391.700439;-118.295258;
3466.599121;-117.200539;
3541.498047;-117.801476;
3616.396729;-118.299774;
3691.295410;-119.194305;
3766.194336;-119.423180;
3841.093262;-119.306023;
3915.991943;-119.569000;
3990.890625;-119.228088;
4065.789551;-119.270546;
4140.688477;-119.509979;
4215.586914;-119.133965;
4290.485840;-119.164345;
4365.384766;-119.839973;
4440.283203;-119.859947;
4515.182129;-119.314972;
4590.081055;-119.779167;
4664.979492;-120.496208;
4739.878418;-120.365318;
4814.777344;-119.371902;
4889.675781;-119.422493;
4964.575195;-120.071785;
5039.473633;-120.728615;
5114.372070;-120.443977;
5189.271484;-120.934166;
5264.169922;-120.343269;
5339.068848;-120.690315;
5413.967773;-121.273384;
5488.866211;-121.089592;
5563.765137;-121.242279;
5638.664063;-121.226433;
5713.562500;-120.907959;
5788.461426;-119.722198;
5863.360352;-120.153313;
5938.258789;-121.709366;
6013.157715;-121.541321;
6088.056641;-120.675102;
6162.955078;-120.996719;
6237.854492;-121.417671;
6312.752930;-120.886650;
6387.651367;-120.708549;
6462.550781;-121.887093;
6537.449219;-122.382851;
6612.348145;-121.967300;
6687.247070;-122.179741;
6762.145508;-122.251060;
6837.043945;-121.093948;
6911.943359;-120.424263;
6986.841797;-119.889595;
7061.740234;-120.571991;
7136.639648;-121.432205;
7211.538086;-121.520645;
7286.437500;-121.198204;
7361.335938;-121.738403;
7436.234375;-122.020599;
7511.133789;-122.071335;
7586.032227;-121.910286;
7660.930664;-122.265144;
7735.830078;-122.308907;
7810.728516;-122.766861;
7885.626953;-122.591400;
7960.526367;-121.928825;
8035.424805;-122.326439;
8110.323242;-122.476509;
8185.222656;-122.528107;
8260.121094;-122.198875;
8335.019531;-121.404144;
8409.918945;-121.649254;
8484.817383;-122.948936;
8559.716797;-122.940300;
8634.615234;-122.371788;
8709.513672;-122.013283;
8784.413086;-122.845825;
8859.311523;-123.273361;
8934.209961;-123.405090;
9009.109375;-122.827881;
9084.007813;-122.367058;
9158.906250;-122.907738;
9233.805664;-123.430176;
9308.704102;-123.557388;
9383.602539;-122.827232;
9458.501953;-122.719292;
9533.400391;-122.585052;
9608.298828;-122.583130;
9683.198242;-123.044182;
9758.096680;-122.432121;
9832.996094;-122.493439;
9907.894531;-123.751022;
9982.792969;-124.452850;
10000.000000;-124.246353;
10033.871094;-122.090973;
10255.340820;-122.633888;
10476.810547;-123.006401;
10698.279297;-123.447144;
10919.749023;-123.252899;
11141.218750;-123.669395;
11362.688477;-123.913986;
11584.158203;-124.640617;
11805.626953;-123.828705;
12027.096680;-123.627647;
12248.566406;-123.705894;
12470.036133;-122.987122;
12691.505859;-122.721474;
12912.974609;-122.833725;
13134.444336;-122.852524;
13355.914063;-122.803619;
13577.382813;-123.453819;
13798.853516;-123.726349;
14020.322266;-123.978943;
14241.791992;-123.962654;
14463.261719;-123.663132;
14684.730469;-123.671051;
14906.201172;-123.957253;
15127.669922;-123.502396;
15349.139648;-123.083839;
15570.609375;-123.221558;
15792.078125;-124.196426;
16013.548828;-124.459732;
16235.017578;-124.522148;
16456.488281;-123.729698;
16677.957031;-123.788673;
16899.425781;-123.496750;
17120.894531;-124.001297;
17342.365234;-123.434555;
17563.835938;-122.670296;
17785.304688;-122.847534;
18006.773438;-123.375725;
18228.242188;-123.793709;
18449.712891;-124.248344;
18671.183594;-123.437744;
18892.652344;-123.750374;
19114.121094;-124.350876;
19335.589844;-124.221817;
19557.060547;-123.555786;
19778.531250;-123.597115;
20000.000000;-123.436577;
20221.468750;-123.864189;
20442.937500;-124.028030;
20664.408203;-123.845085;
20885.878906;-123.350243;
21107.347656;-122.780617;
21328.816406;-122.700836;
21550.285156;-123.145737;
21771.755859;-123.849030;
21993.226563;-124.417053;
22214.695313;-124.609749;
22436.164063;-124.814590;
22657.632813;-124.523987;
22879.103516;-123.369537;
23100.574219;-123.261131;
23322.042969;-123.006271;
23543.511719;-123.735527;
23764.980469;-124.654503;
23986.451172;-124.458405;
24207.921875;-124.518066;
24429.390625;-124.235748;
24650.859375;-124.312431;
24872.328125;-124.086533;
25093.798828;-123.692406;
25315.267578;-124.603195;
25536.738281;-123.880287;
25758.207031;-123.257034;
25979.677734;-123.438667;
26201.146484;-123.793556;
26422.615234;-123.964325;
26644.085938;-123.363373;
26865.554688;-123.660202;
27087.025391;-123.104370;
27308.494141;-122.419174;
27529.962891;-122.409180;
27751.433594;-123.000549;
27972.902344;-123.684334;
28194.373047;-123.184387;
28415.841797;-123.055740;
28637.310547;-123.287628;
28858.781250;-123.022003;
29080.250000;-123.359673;
29301.720703;-123.705490;
29523.189453;-123.332535;
29744.658203;-123.036713;
29966.128906;-123.030876;
30000.000000;-123.032936;
30172.064453;-124.463722;
30921.052734;-124.157471;
31670.039063;-124.301651;
32419.027344;-124.118019;
33168.015625;-123.691895;
33917.003906;-123.779991;
34665.992188;-123.448875;
35414.980469;-123.486412;
36163.968750;-122.714371;
36912.953125;-121.825714;
37661.941406;-122.335106;
38410.929688;-123.514236;
39159.917969;-123.573074;
39908.906250;-123.302155;
40657.894531;-123.289536;
41406.882813;-123.405159;
42155.871094;-123.068733;
42904.859375;-122.277527;
43653.843750;-122.705353;
44402.835938;-123.305374;
45151.820313;-123.568634;
45900.808594;-124.149521;
46649.796875;-125.430649;
47398.785156;-124.611641;
48147.773438;-123.816345;
48896.757813;-123.337662;
49645.750000;-124.152740;
50394.734375;-124.522758;
51143.726563;-124.720711;
51892.710938;-124.064667;
52641.699219;-124.547318;
53390.687500;-124.349358;
54139.675781;-123.918991;
54888.664063;-123.634689;
55637.648438;-124.422752;
56386.640625;-123.657074;
57135.625000;-122.998047;
57884.617188;-123.458549;
58633.601563;-123.677124;
59382.589844;-123.442856;
60131.578125;-122.811150;
60880.566406;-123.262192;
61629.554688;-124.886948;
62378.542969;-124.879211;
63127.531250;-124.468971;
63876.519531;-125.001564;
64625.503906;-125.567787;
65374.492188;-125.609535;
66123.484375;-123.967224;
66872.468750;-124.236633;
67621.453125;-124.935524;
68370.445313;-124.567863;
69119.437500;-124.953178;
69868.421875;-124.988472;
70617.406250;-124.192223;
71366.390625;-123.938194;
72115.382813;-124.409981;
72864.375000;-124.111816;
73613.359375;-124.198708;
74362.343750;-124.216599;
75111.335938;-124.262779;
75860.328125;-125.055954;
76609.312500;-124.072067;
77358.296875;-123.598373;
78107.281250;-124.448250;
78856.273438;-125.043213;
79605.265625;-124.745743;
80354.250000;-124.188065;
81103.234375;-123.405205;
81852.226563;-124.456650;
82601.218750;-125.055817;
83350.203125;-124.776367;
84099.187500;-125.107117;
84848.171875;-124.662834;
85597.164063;-124.504128;
86346.156250;-125.219421;
87095.140625;-124.225342;
87844.125000;-124.053741;
88593.117188;-125.255447;
89342.109375;-125.944435;
90091.093750;-124.417824;
90840.078125;-124.492416;
91589.062500;-124.750137;
92338.054688;-124.655838;
93087.046875;-124.265266;
93836.031250;-125.134575;
94585.023438;-124.724312;
95334.007813;-124.363731;
96082.992188;-124.759941;
96831.984375;-125.928864;
97580.968750;-125.007767;
98329.960938;-125.344948;
99078.945313;-125.223877;
99827.937500;-124.531319;
100000.000000;-124.384087;
100338.718750;-124.037613;
102553.414063;-124.412865;
104768.109375;-124.805016;
106982.796875;-125.249176;
109197.500000;-125.097839;
111412.187500;-124.708420;
113626.882813;-125.138344;
115841.578125;-125.409378;
118056.273438;-125.160683;
120270.968750;-125.391678;
122485.664063;-125.862869;
124700.359375;-125.975945;
126915.054688;-125.216988;
129129.750000;-125.467239;
131344.437500;-125.700424;
133559.140625;-125.293198;
135773.828125;-124.772217;
137988.531250;-124.719833;
140203.218750;-125.770355;
142417.921875;-125.818161;
144632.609375;-125.340004;
146847.312500;-124.994125;
149062.000000;-124.956093;
151276.687500;-125.182991;
153491.390625;-125.311279;
155706.093750;-124.610809;
157920.781250;-125.251007;
160135.468750;-125.982491;
162350.171875;-125.731079;
164564.875000;-125.304688;
166779.562500;-124.898964;
168994.250000;-125.327179;
171208.953125;-124.854477;
173423.656250;-125.253845;
175638.343750;-125.821175;
177853.031250;-126.372528;
180067.718750;-126.300552;
182282.421875;-125.428566;
184497.125000;-124.801765;
186711.812500;-124.820251;
188926.500000;-125.244095;
191141.203125;-125.772873;
193355.906250;-126.633232;
195570.593750;-126.142227;
197785.281250;-125.875450;
199999.984375;-126.020355;
202214.687500;-125.952782;
204429.375000;-126.123215;
206644.062500;-126.421692;
208858.765625;-126.597969;
211073.468750;-125.996346;
213288.156250;-125.170326;
215502.843750;-125.108215;
217717.531250;-125.291573;
219932.234375;-126.180550;
222146.937500;-126.439613;
224361.625000;-126.279190;
226576.312500;-126.158997;
228791.031250;-125.182922;
231005.718750;-125.889862;
233220.406250;-127.058754;
235435.093750;-126.007195;
237649.781250;-125.791138;
239864.500000;-125.972069;
242079.187500;-126.645531;
244293.875000;-127.011063;
246508.562500;-125.565742;
248723.281250;-125.482201;
250937.968750;-126.099503;
253152.656250;-125.396629;
255367.343750;-125.167496;
257582.062500;-125.970634;
259796.750000;-126.863525;
262011.437500;-126.451912;
264226.125000;-125.390366;
266440.843750;-125.772240;
268655.531250;-126.366386;
270870.218750;-126.002029;
273084.906250;-125.782578;
275299.593750;-125.469688;
277514.312500;-125.970581;
279729.000000;-126.370987;
281943.687500;-126.518013;
284158.375000;-126.335457;
286373.093750;-126.195580;
288587.781250;-125.726196;
290802.468750;-125.550217;
293017.156250;-125.808662;
295231.875000;-126.234085;
297446.562500;-126.484146;
299661.250000;-125.684288;
300000.000000;-125.708145;
301720.625000;-125.412651;
309210.531250;-125.536125;
316700.406250;-126.436722;
324190.281250;-126.405823;
331680.156250;-125.619644;
339170.031250;-126.004784;
346659.906250;-126.465813;
354149.781250;-126.829269;
361639.687500;-126.691055;
369129.562500;-126.556213;
376619.437500;-127.538788;
384109.312500;-126.500298;
391599.187500;-125.949203;
399089.062500;-125.243210;
406578.937500;-124.860207;
414068.812500;-125.995026;
421558.687500;-126.635384;
429048.562500;-126.355843;
436538.437500;-125.649384;
444028.312500;-125.724525;
451518.187500;-125.740005;
459008.093750;-126.247597;
466497.968750;-125.995827;
473987.843750;-126.099449;
481477.718750;-126.175819;
488967.625000;-125.861237;
496457.500000;-126.342896;
503947.375000;-127.017166;
511437.250000;-126.700859;
518927.125000;-126.100830;
526417.000000;-126.298409;
533906.875000;-127.203117;
541396.750000;-127.988586;
548886.625000;-126.733238;
556376.500000;-126.773270;
563866.375000;-126.535324;
571356.250000;-126.516670;
578846.125000;-125.680832;
586336.000000;-125.919960;
593825.875000;-126.761787;
601315.750000;-127.501884;
608805.625000;-127.182175;
616295.500000;-126.405228;
623785.375000;-126.636803;
631275.250000;-127.187561;
638765.125000;-126.919212;
646255.062500;-126.004700;
653744.937500;-126.403458;
661234.812500;-126.522842;
668724.687500;-126.888191;
676214.562500;-127.423920;
683704.437500;-127.171387;
691194.312500;-126.981506;
698684.187500;-127.164688;
706174.062500;-127.404190;
713664.000000;-127.392471;
721153.875000;-127.248207;
728643.750000;-126.719406;
736133.625000;-128.020813;
743623.500000;-127.379837;
751113.375000;-127.166306;
758603.250000;-127.666107;
766093.125000;-127.711189;
773583.000000;-127.527885;
781072.875000;-127.222885;
788562.750000;-127.701950;
796052.625000;-127.786758;
803542.500000;-128.267151;
811032.375000;-128.723724;
818522.250000;-128.699341;
826012.125000;-128.206497;
833502.000000;-127.885681;
840991.875000;-127.611618;
848481.750000;-127.689346;
855971.625000;-128.382339;
863461.500000;-128.725021;
870951.375000;-127.604622;
878441.250000;-127.695572;
885931.187500;-128.743622;
893421.062500;-129.205566;
900910.937500;-127.611565;
908400.812500;-126.738625;
915890.687500;-127.241440;
923380.562500;-126.547142;
930870.437500;-126.261986;
938360.312500;-126.754448;
945850.187500;-127.805191;
953340.062500;-128.581253;
960829.937500;-127.362343;
968319.812500;-127.880997;
975809.687500;-128.161865;
983299.562500;-127.258575;
990789.437500;-127.700600;
998279.312500;-128.724304;
1000000.000000;-128.794586;
