Type;FSW-26;
Version;4.70SP1;
Date;24.Nov 2021;
Mode;PNoise;
Signal Frequency;99999999.977000;Hz
Signal Level;-8.150000;dBm
Rf Att;0.000000;dB
Coupling;AC;
Preamplifier;OFF;
Verify Frequency;ON;
Frequency Tolerance Relative;10.000000;%
Frequency Tolerance Absolute;1000.000000;Hz
Frequency Tracking;ON;
Verify Level;ON;
Level Tolerance;10.000000;dB
Level Tracking;ON;
AM Rejection;OFF;
Max Frequency Drift;0.060000;Hz
Digital PLL;ON;
Decimation;ON;
Online I/Q;OFF;
Spur Removal;OFF;
Start;1.000000;Hz
Stop;10000000.000000;Hz
AVG Multiplier State;OFF;
SubSweep;1;
Start;1.000000;Hz
Stop;3.000000;Hz
RBW;0.030000;Hz
Sweep Count;1;
Sweep Mode;I/Q FFT;
IQ Window;Blackman-Harris;
SubSweep;2;
Start;3.000000;Hz
Stop;10.000000;Hz
RBW;0.100000;Hz
Sweep Count;1;
Sweep Mode;I/Q FFT;
IQ Window;Blackman-Harris;
SubSweep;3;
Start;10.000000;Hz
Stop;30.000000;Hz
RBW;0.300000;Hz
Sweep Count;1;
Sweep Mode;I/Q FFT;
IQ Window;Blackman-Harris;
SubSweep;4;
Start;30.000000;Hz
Stop;100.000000;Hz
RBW;1.000000;Hz
Sweep Count;3;
Sweep Mode;Swept;
IQ Window;Swept Gaussian;
SubSweep;5;
Start;100.000000;Hz
Stop;300.000000;Hz
RBW;3.000000;Hz
Sweep Count;3;
Sweep Mode;Swept;
IQ Window;Swept Gaussian;
SubSweep;6;
Start;300.000000;Hz
Stop;1000.000000;Hz
RBW;10.000000;Hz
Sweep Count;3;
Sweep Mode;Swept;
IQ Window;Swept Gaussian;
SubSweep;7;
Start;1000.000000;Hz
Stop;3000.000000;Hz
RBW;30.000000;Hz
Sweep Count;10;
Sweep Mode;Swept;
IQ Window;Swept Gaussian;
SubSweep;8;
Start;3000.000000;Hz
Stop;10000.000000;Hz
RBW;100.000000;Hz
Sweep Count;10;
Sweep Mode;Swept;
IQ Window;Swept Gaussian;
SubSweep;9;
Start;10000.000000;Hz
Stop;30000.000000;Hz
RBW;300.000000;Hz
Sweep Count;10;
Sweep Mode;Swept;
IQ Window;Swept Gaussian;
SubSweep;10;
Start;30000.000000;Hz
Stop;100000.000000;Hz
RBW;1000.000000;Hz
Sweep Count;10;
Sweep Mode;Swept;
IQ Window;Swept Gaussian;
SubSweep;11;
Start;100000.000000;Hz
Stop;300000.000000;Hz
RBW;3000.000000;Hz
Sweep Count;10;
Sweep Mode;Swept;
IQ Window;Swept Gaussian;
SubSweep;12;
Start;300000.000000;Hz
Stop;1000000.000000;Hz
RBW;10000.000000;Hz
Sweep Count;10;
Sweep Mode;Swept;
IQ Window;Swept Gaussian;
SubSweep;13;
Start;1000000.000000;Hz
Stop;3000000.000000;Hz
RBW;30000.000000;Hz
Sweep Count;10;
Sweep Mode;Swept;
IQ Window;Swept Gaussian;
SubSweep;14;
Start;3000000.000000;Hz
Stop;10000000.000000;Hz
RBW;100000.000000;Hz
Sweep Count;10;
Sweep Mode;Swept;
IQ Window;Swept Gaussian;
Window;1;Phase Noise
Trace;1;
Trace Mode;CLR/WRITE;
Smoothing;ON;
Smoothing Type;Linear;
Smoothing Value;1;%
Spur Removal;OFF;
x-Unit;Hz;
y-Unit;dBc/Hz;
Values;1418;
1.000000;-42.863144;
1.001059;-42.863922;
1.016949;-42.818466;
1.032839;-41.937485;
1.048729;-39.872986;
1.064619;-38.856781;
1.080508;-38.736263;
1.096398;-38.734814;
1.112288;-38.735054;
1.128178;-38.734306;
1.144068;-38.736874;
1.159958;-38.959053;
1.175848;-39.634411;
1.191737;-40.009247;
1.207627;-40.041542;
1.223517;-40.041748;
1.239407;-40.040962;
1.255297;-39.990398;
1.271186;-39.757690;
1.287076;-40.020298;
1.302966;-40.666080;
1.318856;-40.803608;
1.334746;-40.806026;
1.350636;-40.806023;
1.366525;-40.793171;
1.382415;-40.585552;
1.398305;-40.108112;
1.414195;-39.942402;
1.430085;-39.955441;
1.445975;-39.957012;
1.461864;-39.957050;
1.477754;-39.955372;
1.493644;-39.907967;
1.509534;-39.973423;
1.525424;-40.680004;
1.541314;-41.178314;
1.557203;-41.226940;
1.573093;-41.227375;
1.588983;-41.227509;
1.604873;-41.241741;
1.620763;-41.531216;
1.636653;-42.639282;
1.652542;-43.606380;
1.668432;-43.754383;
1.684322;-43.757099;
1.700212;-43.757133;
1.716102;-43.757942;
1.731992;-43.958519;
1.747881;-45.639908;
1.763771;-49.383541;
1.779661;-51.166718;
1.795551;-51.248787;
1.811441;-51.249180;
1.827331;-51.247421;
1.843220;-51.189217;
1.859110;-51.006065;
1.875000;-50.990967;
1.890890;-51.066265;
1.906780;-51.078339;
1.922670;-51.078865;
1.938559;-51.077049;
1.954449;-50.925766;
1.970339;-49.903214;
1.986229;-48.926014;
2.002119;-48.877216;
2.018008;-48.920399;
2.033898;-48.921925;
2.049788;-48.921722;
2.065678;-48.888489;
2.081568;-48.363529;
2.097458;-47.178741;
2.113348;-46.635544;
2.129237;-46.588993;
2.145127;-46.588882;
2.161017;-46.588860;
2.176907;-46.589008;
2.192797;-46.628605;
2.208687;-47.139019;
2.224576;-48.361740;
2.240466;-48.962288;
2.256356;-49.002918;
2.272246;-49.003029;
2.288136;-49.002651;
2.304025;-49.015602;
2.319915;-49.475014;
2.335805;-51.606140;
2.351695;-54.068470;
2.367585;-54.519672;
2.383475;-54.527451;
2.399364;-54.527596;
2.415254;-54.528408;
2.431144;-54.623863;
2.447034;-55.306267;
2.462924;-56.275059;
2.478814;-56.541336;
2.494704;-56.553619;
2.510593;-56.554214;
2.526483;-56.502003;
2.542373;-55.064320;
2.558263;-51.455612;
2.574153;-49.657486;
2.590042;-49.424595;
2.605932;-49.424232;
2.621822;-49.424362;
2.637712;-49.420338;
2.653602;-49.094376;
2.669492;-46.977394;
2.685381;-44.821934;
2.701271;-44.256092;
2.717161;-44.224720;
2.733051;-44.224632;
2.748941;-44.224594;
2.764831;-44.209000;
2.780720;-44.006470;
2.796610;-43.681217;
2.812500;-43.683334;
2.828390;-43.725304;
2.844280;-43.727135;
2.860170;-43.727112;
2.876059;-43.724518;
2.891949;-43.486809;
2.907839;-43.954102;
2.923729;-45.215340;
2.939619;-45.560688;
2.955508;-45.449299;
2.971398;-45.420265;
2.987288;-45.380554;
3.000000;-45.395088;
3.019068;-45.830009;
3.072034;-47.316536;
3.125000;-48.482574;
3.177966;-48.623444;
3.230932;-48.625443;
3.283898;-48.526367;
3.336864;-48.188637;
3.389831;-49.077030;
3.442797;-50.307766;
3.495763;-51.482643;
3.548729;-52.817768;
3.601695;-53.307487;
3.654661;-52.850193;
3.707627;-52.558655;
3.760593;-52.593922;
3.813560;-52.168232;
3.866525;-51.863346;
3.919492;-51.890850;
3.972458;-51.825352;
4.025424;-51.460068;
4.078390;-51.317375;
4.131356;-51.865162;
4.184322;-51.900562;
4.237288;-51.738720;
4.290254;-51.911335;
4.343220;-51.861515;
4.396186;-51.785118;
4.449152;-52.204826;
4.502119;-52.493496;
4.555085;-52.303535;
4.608051;-52.712288;
4.661017;-53.167683;
4.713983;-53.307739;
4.766949;-53.433960;
4.819915;-53.811684;
4.872881;-54.124912;
4.925848;-54.417870;
4.978814;-54.798195;
5.031780;-55.179729;
5.084746;-55.714684;
5.137712;-56.343628;
5.190678;-56.253799;
5.243644;-55.424274;
5.296610;-55.477066;
5.349576;-55.607819;
5.402543;-54.641880;
5.455509;-53.386871;
5.508475;-52.918228;
5.561441;-52.739212;
5.614407;-52.135830;
5.667373;-50.779156;
5.720339;-50.021290;
5.773305;-49.980286;
5.826272;-50.025223;
5.879238;-50.060699;
5.932203;-50.150414;
5.985169;-50.429886;
6.038136;-50.670170;
6.091102;-50.617554;
6.144068;-50.481300;
6.197034;-50.753563;
6.250000;-51.392384;
6.302966;-51.593834;
6.355932;-51.271370;
6.408898;-51.465500;
6.461864;-53.287128;
6.514831;-55.124802;
6.567797;-55.196724;
6.620763;-54.844543;
6.673729;-54.784058;
6.726695;-54.766354;
6.779661;-54.694672;
6.832627;-54.717659;
6.885593;-55.053974;
6.938560;-55.744511;
6.991526;-56.041534;
7.044492;-55.933041;
7.097458;-56.109200;
7.150424;-57.542233;
7.203390;-58.790810;
7.256356;-58.143829;
7.309322;-57.680950;
7.362288;-58.015137;
7.415255;-58.266563;
7.468221;-58.380489;
7.521187;-56.871086;
7.574153;-55.410217;
7.627119;-55.208645;
7.680085;-55.262852;
7.733051;-55.270821;
7.786017;-55.244904;
7.838983;-55.307518;
7.891949;-55.421101;
7.944915;-55.486370;
7.997881;-55.605846;
8.050848;-55.746822;
8.103814;-55.742821;
8.156780;-55.536934;
8.209746;-55.687637;
8.262712;-55.565376;
8.315679;-56.383728;
8.368645;-57.911907;
8.421611;-58.101646;
8.474577;-57.740646;
8.527542;-57.031006;
8.580508;-56.002419;
8.633474;-55.262825;
8.686440;-54.938225;
8.739407;-54.894707;
8.792373;-54.963039;
8.845339;-54.952206;
8.898305;-54.938126;
8.951271;-54.996677;
9.004237;-55.129314;
9.057203;-55.185352;
9.110169;-55.327778;
9.163136;-55.590149;
9.216102;-55.793686;
9.269068;-55.979935;
9.322034;-56.460571;
9.375000;-57.614674;
9.427966;-58.913303;
9.480932;-59.336220;
9.533898;-59.234425;
9.586864;-59.554501;
9.639831;-60.381226;
9.692797;-61.454865;
9.745763;-62.158703;
9.798729;-62.048115;
9.851695;-62.244972;
9.904661;-61.216549;
9.957627;-60.173080;
10.000000;-60.254486;
10.010593;-60.133980;
10.169492;-59.609222;
10.328390;-59.059959;
10.487288;-58.352333;
10.646187;-57.918110;
10.805085;-57.786556;
10.963984;-57.616276;
11.122882;-57.560673;
11.281780;-57.556564;
11.440679;-57.566879;
11.599577;-57.544701;
11.758475;-57.480804;
11.917373;-58.008808;
12.076271;-58.673786;
12.235169;-58.698124;
12.394068;-58.616455;
12.552966;-58.493477;
12.711864;-58.789658;
12.870763;-59.733128;
13.029661;-60.789810;
13.188560;-60.915604;
13.347458;-60.343586;
13.506356;-59.894592;
13.665255;-59.676506;
13.824153;-59.520168;
13.983051;-59.424023;
14.141950;-59.524261;
14.300848;-59.552773;
14.459746;-59.511105;
14.618645;-59.404877;
14.777543;-59.770271;
14.936441;-60.658852;
15.095340;-61.063461;
15.254238;-60.767365;
15.413136;-60.433773;
15.572034;-60.588051;
15.730932;-61.523071;
15.889831;-62.159531;
16.048729;-61.506214;
16.207628;-61.063713;
16.366526;-61.180107;
16.525425;-61.229141;
16.684322;-61.067970;
16.843222;-60.873569;
17.002119;-60.851089;
17.161016;-60.810810;
17.319916;-60.823616;
17.478813;-60.815540;
17.637712;-61.108406;
17.796610;-61.837013;
17.955509;-62.561985;
18.114407;-62.523533;
18.273306;-62.445404;
18.432203;-63.162235;
18.591103;-63.842922;
18.750000;-64.192818;
18.908899;-63.517265;
19.067797;-63.027729;
19.226696;-63.321320;
19.385593;-63.549210;
19.544493;-63.356403;
19.703390;-63.113537;
19.862289;-62.860409;
20.021187;-62.575691;
20.180086;-62.521671;
20.338984;-62.628628;
20.497881;-62.863026;
20.656780;-63.141613;
20.815678;-63.644356;
20.974577;-64.010956;
21.133474;-63.606068;
21.292374;-63.607212;
21.451271;-63.828869;
21.610170;-64.039139;
21.769068;-64.006294;
21.927967;-63.715816;
22.086864;-63.631863;
22.245764;-63.819046;
22.404661;-64.190125;
22.563560;-64.262306;
22.722458;-63.991592;
22.881357;-63.445011;
23.040255;-63.289074;
23.199154;-63.438713;
23.358051;-63.541557;
23.516951;-63.939228;
23.675848;-64.702370;
23.834745;-65.207352;
23.993645;-64.655037;
24.152542;-64.205162;
24.311441;-64.569633;
24.470339;-65.032997;
24.629238;-65.242325;
24.788136;-65.095093;
24.947035;-64.665749;
25.105932;-64.693764;
25.264832;-65.404106;
25.423729;-65.720985;
25.582628;-65.316727;
25.741526;-64.768959;
25.900425;-64.546623;
26.059322;-64.680794;
26.218222;-64.970566;
26.377119;-65.689133;
26.536018;-66.552765;
26.694916;-66.382042;
26.853815;-65.379753;
27.012712;-64.665428;
27.171610;-64.581642;
27.330509;-64.948990;
27.489407;-65.193626;
27.648306;-65.257782;
27.807203;-65.133186;
27.966103;-65.266129;
28.125000;-65.927948;
28.283899;-66.245789;
28.442797;-66.152161;
28.601696;-65.962479;
28.760593;-65.795357;
28.919493;-65.695908;
29.078390;-65.998123;
29.237289;-66.916946;
29.396187;-68.079102;
29.555086;-68.375374;
29.713984;-67.983749;
29.872883;-67.682564;
30.000000;-67.606941;
30.172066;-67.862732;
30.921053;-68.073875;
31.670040;-67.938599;
32.419029;-67.900345;
33.168015;-67.957649;
33.917004;-67.991417;
34.665993;-67.990349;
35.414978;-68.235306;
36.163967;-68.566170;
36.912956;-68.790314;
37.661942;-68.722397;
38.410931;-68.902893;
39.159920;-69.523636;
39.908905;-69.895493;
40.657894;-69.807182;
41.406883;-69.754814;
42.155869;-69.965248;
42.904858;-70.144958;
43.653847;-70.068146;
44.402832;-70.075653;
45.151821;-70.402893;
45.900810;-70.668053;
46.649796;-70.833618;
47.398785;-71.031906;
48.147774;-71.306740;
48.896759;-71.416870;
49.645748;-71.472366;
50.394737;-71.595589;
51.143723;-71.757355;
51.892712;-71.724609;
52.641701;-71.807037;
53.390686;-71.998985;
54.139675;-72.316711;
54.888664;-72.297523;
55.637650;-72.292755;
56.386635;-72.587440;
57.135628;-72.902206;
57.884613;-72.795723;
58.633598;-72.615677;
59.382591;-72.612808;
60.131577;-72.920959;
60.880562;-72.949394;
61.629555;-72.817078;
62.378540;-73.014450;
63.127525;-73.444473;
63.876518;-73.625092;
64.625504;-73.595428;
65.374489;-73.583534;
66.123482;-74.030273;
66.872467;-74.215973;
67.621452;-74.024055;
68.370445;-73.960144;
69.119431;-74.155159;
69.868416;-74.370834;
70.617409;-74.494781;
71.366394;-74.409897;
72.115379;-74.674568;
72.864372;-74.973328;
73.613358;-75.058372;
74.362343;-75.080513;
75.111336;-75.074127;
75.860321;-75.102119;
76.609306;-75.173813;
77.358299;-75.036003;
78.107285;-75.127441;
78.856270;-75.324165;
79.605263;-75.448746;
80.354248;-75.653679;
81.103233;-75.749176;
81.852226;-75.709526;
82.601212;-75.659180;
83.350197;-75.615845;
84.099190;-75.720322;
84.848175;-75.706390;
85.597160;-75.529358;
86.346146;-75.674934;
87.095139;-76.027214;
87.844124;-76.222473;
88.593109;-76.193787;
89.342102;-76.176727;
90.091087;-76.437309;
90.840073;-76.576599;
91.589066;-76.282059;
92.338051;-76.256271;
93.087036;-76.482681;
93.836029;-76.788712;
94.585014;-76.734810;
95.334000;-76.748512;
96.082993;-76.898285;
96.831978;-77.219368;
97.580963;-77.422531;
98.329956;-77.369278;
99.078941;-77.483536;
99.827927;-77.914589;
100.000000;-78.319870;
100.338715;-78.356346;
102.553413;-78.609764;
104.768112;-79.463890;
106.982803;-80.210251;
109.197495;-80.443619;
111.412193;-80.500267;
113.626892;-81.306305;
115.841583;-81.544601;
118.056274;-81.671455;
120.270973;-82.021286;
122.485672;-81.871452;
124.700363;-81.924911;
126.915054;-81.577255;
129.129761;-81.256676;
131.344452;-81.045486;
133.559143;-80.769463;
135.773834;-80.507629;
137.988525;-80.121452;
140.203232;-79.723808;
142.417923;-79.517754;
144.632614;-79.420998;
146.847321;-79.275459;
149.062012;-79.131538;
151.276703;-79.111595;
153.491394;-79.083641;
155.706085;-79.081444;
157.920792;-79.125954;
160.135483;-79.228935;
162.350174;-79.379143;
164.564880;-79.568275;
166.779572;-79.816826;
168.994263;-80.032265;
171.208954;-80.395416;
173.423645;-80.910126;
175.638351;-81.289871;
177.853043;-81.664017;
180.067734;-82.153084;
182.282440;-82.845833;
184.497131;-83.449013;
186.711823;-83.870583;
188.926514;-84.597130;
191.141205;-84.967209;
193.355911;-85.522095;
195.570602;-86.152359;
197.785294;-86.225250;
200.000000;-86.320686;
202.214691;-85.952057;
204.429382;-85.668266;
206.644073;-85.487946;
208.858765;-85.109680;
211.073471;-84.893303;
213.288162;-84.341461;
215.502853;-83.816345;
217.717545;-83.559143;
219.932251;-83.309853;
222.146942;-83.135422;
224.361633;-82.884171;
226.576340;-82.663338;
228.791031;-82.501366;
231.005722;-82.297577;
233.220413;-82.207947;
235.435104;-82.255203;
237.649811;-82.307045;
239.864502;-82.279701;
242.079193;-82.296463;
244.293900;-82.466515;
246.508591;-82.835632;
248.723282;-83.140175;
250.937973;-83.371735;
253.152664;-83.716087;
255.367371;-84.054329;
257.582062;-84.553032;
259.796753;-85.015747;
262.011475;-85.413681;
264.226135;-86.016983;
266.440857;-86.421875;
268.655518;-86.748978;
270.870239;-87.107002;
273.084930;-87.648041;
275.299622;-88.387726;
277.514313;-88.325134;
279.729004;-88.242958;
281.943726;-87.981644;
284.158386;-87.549911;
286.373108;-86.762985;
288.587769;-86.139877;
290.802490;-85.750587;
293.017181;-85.249931;
295.231873;-84.782822;
297.446594;-84.331322;
299.661255;-83.943268;
300.000000;-83.673096;
301.720642;-83.468781;
309.210510;-83.364090;
316.700378;-83.205101;
324.190277;-83.059700;
331.680145;-82.893036;
339.170013;-82.805107;
346.659912;-82.711411;
354.149780;-82.753464;
361.639648;-82.914284;
369.129517;-83.033356;
376.619415;-83.127563;
384.109283;-83.215416;
391.599182;-83.345802;
399.089050;-83.491501;
406.578918;-83.700653;
414.068787;-83.887108;
421.558685;-83.902275;
429.048553;-83.898811;
436.538452;-83.999474;
444.028320;-84.212936;
451.518188;-84.513824;
459.008057;-84.803848;
466.497955;-85.004570;
473.987823;-85.138893;
481.477722;-85.238388;
488.967590;-85.385803;
496.457458;-85.618591;
503.947327;-85.855499;
511.437225;-86.042343;
518.927124;-86.060570;
526.416992;-86.005180;
533.906860;-86.118309;
541.396729;-86.344879;
548.886597;-86.535614;
556.376465;-86.618279;
563.866333;-86.528320;
571.356201;-86.593964;
578.846130;-86.723480;
586.335999;-86.514542;
593.825867;-86.469025;
601.315796;-86.639847;
608.805664;-86.741798;
616.295532;-86.742775;
623.785400;-86.763039;
631.275269;-86.829590;
638.765137;-86.859177;
646.255005;-86.889297;
653.744873;-87.001793;
661.234741;-87.128372;
668.724670;-87.193817;
676.214539;-87.133018;
683.704407;-86.949341;
691.194336;-86.955704;
698.684204;-87.197655;
706.174072;-87.292664;
713.663940;-87.320717;
721.153809;-87.446251;
728.643677;-87.561813;
736.133545;-87.625053;
743.623413;-87.689934;
751.113281;-87.812187;
758.603210;-87.806480;
766.093079;-87.479935;
773.582947;-87.222794;
781.072815;-87.208443;
788.562683;-87.425568;
796.052612;-87.736725;
803.542480;-87.884949;
811.032349;-87.948387;
818.522217;-87.868866;
826.012085;-87.831108;
833.501953;-87.771957;
840.991882;-87.670433;
848.481750;-87.701683;
855.971619;-87.782257;
863.461487;-87.812943;
870.951355;-87.781769;
878.441223;-87.923424;
885.931152;-88.152527;
893.421021;-88.224518;
900.910889;-88.206085;
908.400757;-88.119431;
915.890625;-88.155396;
923.380493;-88.210724;
930.870422;-88.278885;
938.360291;-88.258705;
945.850159;-88.269287;
953.340027;-88.616570;
960.829895;-88.891365;
968.319763;-89.058136;
975.809692;-89.247276;
983.299561;-89.656837;
990.789429;-90.156982;
998.279297;-90.283012;
1000.000000;-90.459282;
1003.387207;-90.808197;
1025.534180;-91.242134;
1047.681152;-91.422539;
1069.828125;-91.549179;
1091.975098;-91.886963;
1114.122070;-92.395279;
1136.268921;-92.911186;
1158.415894;-92.884789;
1180.562866;-92.936584;
1202.709839;-92.936409;
1224.856812;-92.992233;
1247.003662;-93.055939;
1269.150635;-93.160675;
1291.297607;-93.138947;
1313.444580;-92.978294;
1335.591553;-92.808601;
1357.738525;-92.739685;
1379.885498;-92.891479;
1402.032471;-92.918785;
1424.179321;-92.817444;
1446.326294;-92.735001;
1468.473267;-92.606720;
1490.620239;-92.511017;
1512.767090;-92.413750;
1534.914063;-92.502014;
1557.061035;-92.499321;
1579.208008;-92.532410;
1601.354980;-92.542145;
1623.501953;-92.781227;
1645.648926;-93.028976;
1667.795898;-93.080856;
1689.942871;-93.088768;
1712.089722;-92.990707;
1734.236694;-92.868500;
1756.383667;-92.741501;
1778.530640;-92.810631;
1800.677490;-92.967926;
1822.824463;-93.213669;
1844.971436;-93.198738;
1867.118408;-93.019409;
1889.265381;-92.928085;
1911.412354;-92.852036;
1933.559326;-92.912102;
1955.706177;-92.900398;
1977.853149;-92.844078;
2000.000122;-92.933647;
2022.147095;-93.165604;
2044.294067;-93.367378;
2066.440918;-93.467682;
2088.587891;-93.579247;
2110.734863;-93.460632;
2132.881836;-93.124588;
2155.028809;-93.008774;
2177.175781;-93.163834;
2199.322754;-93.087860;
2221.469727;-93.050293;
2243.616699;-93.040237;
2265.763672;-92.896378;
2287.910645;-92.674347;
2310.057617;-92.483078;
2332.204590;-92.343246;
2354.351563;-92.167213;
2376.498535;-92.078796;
2398.645264;-92.106972;
2420.792236;-92.093567;
2442.939209;-92.019913;
2465.086182;-92.265739;
2487.233154;-92.358582;
2509.380127;-92.358826;
2531.526855;-92.604637;
2553.673828;-92.783630;
2575.820801;-92.813179;
2597.967773;-92.797424;
2620.114746;-92.844666;
2642.261719;-92.855362;
2664.408691;-92.888229;
2686.555664;-93.004379;
2708.702637;-93.053040;
2730.849609;-93.163818;
2752.996582;-93.381538;
2775.143555;-93.615448;
2797.290527;-93.677032;
2819.437500;-93.686867;
2841.584473;-93.716446;
2863.731445;-93.559555;
2885.878418;-93.523056;
2908.025391;-93.539085;
2930.172363;-93.524254;
2952.319336;-93.709763;
2974.466309;-93.912094;
2996.613281;-93.834267;
3000.000000;-93.578293;
3017.206543;-93.218140;
3092.105469;-92.871307;
3167.004150;-92.734825;
3241.902832;-92.731720;
3316.801758;-92.715088;
3391.700439;-92.679016;
3466.599121;-92.605446;
3541.498047;-92.582809;
3616.396729;-92.564468;
3691.295410;-92.483887;
3766.194336;-92.420471;
3841.093262;-92.342194;
3915.991943;-92.303818;
3990.890625;-92.313980;
4065.789551;-92.440376;
4140.688477;-92.633865;
4215.586914;-92.823029;
4290.485840;-92.785339;
4365.384766;-92.623856;
4440.283203;-92.584686;
4515.182129;-92.472702;
4590.081055;-92.413628;
4664.979492;-92.446098;
4739.878418;-92.449066;
4814.777344;-92.412483;
4889.675781;-92.399124;
4964.575195;-92.427376;
5039.473633;-92.370918;
5114.372070;-92.363861;
5189.271484;-92.339249;
5264.169922;-92.322304;
5339.068848;-92.322983;
5413.967773;-92.348267;
5488.866211;-92.394730;
5563.765137;-92.356583;
5638.664063;-92.345245;
5713.562500;-92.413040;
5788.461426;-92.363731;
5863.360352;-92.268234;
5938.258789;-92.394409;
6013.157715;-92.508484;
6088.056641;-92.515533;
6162.955078;-92.537430;
6237.854492;-92.599152;
6312.752930;-92.577370;
6387.651367;-92.495773;
6462.550781;-92.328033;
6537.449219;-92.206123;
6612.348145;-92.204575;
6687.247070;-92.176704;
6762.145508;-92.280487;
6837.043945;-92.197174;
6911.943359;-92.129433;
6986.841797;-92.237442;
7061.740234;-92.301361;
7136.639648;-92.273621;
7211.538086;-92.329605;
7286.437500;-92.428391;
7361.335938;-92.451057;
7436.234375;-92.422852;
7511.133789;-92.515686;
7586.032227;-92.699821;
7660.930664;-92.851753;
7735.830078;-92.831406;
7810.728516;-92.885391;
7885.626953;-92.916855;
7960.526367;-93.048134;
8035.424805;-93.224426;
8110.323242;-93.271225;
8185.222656;-93.294975;
8260.121094;-93.530190;
8335.019531;-93.395065;
8409.918945;-93.154228;
8484.817383;-92.998573;
8559.716797;-93.040199;
8634.615234;-92.998291;
8709.513672;-92.944366;
8784.413086;-92.985214;
8859.311523;-93.107788;
8934.209961;-93.085976;
9009.109375;-93.024857;
9084.007813;-92.874825;
9158.906250;-92.867058;
9233.805664;-92.912170;
9308.704102;-92.894127;
9383.602539;-92.877266;
9458.501953;-92.976440;
9533.400391;-93.094139;
9608.298828;-93.169792;
9683.198242;-93.212387;
9758.096680;-93.347122;
9832.996094;-93.428917;
9907.894531;-93.403702;
9982.792969;-93.258987;
10000.000000;-93.110855;
10033.871094;-93.056213;
10255.340820;-92.981674;
10476.810547;-92.794334;
10698.279297;-92.740181;
10919.749023;-92.634033;
11141.218750;-92.481110;
11362.688477;-92.449860;
11584.158203;-92.488167;
11805.626953;-92.476799;
12027.096680;-92.232391;
12248.566406;-92.059418;
12470.036133;-92.037552;
12691.505859;-91.934196;
12912.974609;-91.916039;
13134.444336;-92.006912;
13355.914063;-91.956070;
13577.382813;-92.083542;
13798.853516;-92.236237;
14020.322266;-92.039032;
14241.791992;-91.997383;
14463.261719;-91.933052;
14684.730469;-91.864151;
14906.201172;-91.940353;
15127.669922;-91.826569;
15349.139648;-91.833725;
15570.609375;-91.920395;
15792.078125;-91.915329;
16013.548828;-91.940849;
16235.017578;-91.943329;
16456.488281;-91.951477;
16677.957031;-91.993568;
16899.425781;-91.951057;
17120.894531;-91.929718;
17342.365234;-92.109726;
17563.835938;-92.196198;
17785.304688;-92.328552;
18006.773438;-92.434052;
18228.242188;-92.244606;
18449.712891;-92.296967;
18671.183594;-92.434151;
18892.652344;-92.277443;
19114.121094;-91.986023;
19335.589844;-91.943581;
19557.060547;-91.848328;
19778.531250;-91.712448;
20000.000000;-91.758614;
20221.468750;-91.745522;
20442.937500;-91.722916;
20664.408203;-91.566147;
20885.878906;-91.339371;
21107.347656;-91.179268;
21328.816406;-91.044830;
21550.285156;-91.010773;
21771.755859;-91.025276;
21993.226563;-91.109863;
22214.695313;-91.217644;
22436.164063;-91.303680;
22657.632813;-91.371803;
22879.103516;-91.439499;
23100.574219;-91.381088;
23322.042969;-91.291565;
23543.511719;-91.212509;
23764.980469;-91.117050;
23986.451172;-90.336372;
24207.921875;-89.788452;
24429.390625;-89.704208;
24650.859375;-89.630753;
24872.328125;-89.589355;
25093.798828;-89.553696;
25315.267578;-89.523575;
25536.738281;-89.523712;
25758.207031;-89.575050;
25979.677734;-89.487564;
26201.146484;-89.405205;
26422.615234;-89.414307;
26644.085938;-89.402817;
26865.554688;-89.387939;
27087.025391;-89.285492;
27308.494141;-89.749367;
27529.962891;-90.222794;
27751.433594;-90.201431;
27972.902344;-90.228668;
28194.373047;-90.311653;
28415.841797;-90.336319;
28637.310547;-90.118988;
28858.781250;-89.927101;
29080.250000;-89.804527;
29301.720703;-89.837502;
29523.189453;-89.787407;
29744.658203;-89.779747;
29966.128906;-89.766151;
30000.000000;-89.787743;
30172.064453;-89.731812;
30921.052734;-89.115036;
31670.039063;-87.080307;
32419.027344;-86.613495;
33168.015625;-86.572052;
33917.003906;-86.506645;
34665.992188;-86.482887;
35414.980469;-86.525734;
36163.968750;-86.573059;
36912.953125;-86.592911;
37661.941406;-86.518135;
38410.929688;-86.440338;
39159.917969;-86.357224;
39908.906250;-86.303780;
40657.894531;-86.185036;
41406.882813;-86.128326;
42155.871094;-86.443802;
42904.859375;-88.114815;
43653.843750;-88.581779;
44402.835938;-88.348663;
45151.820313;-88.209778;
45900.808594;-88.129280;
46649.796875;-88.009567;
47398.785156;-87.915421;
48147.773438;-87.892799;
48896.757813;-87.946236;
49645.750000;-88.016418;
50394.734375;-88.058632;
51143.726563;-87.880821;
51892.710938;-87.890198;
52641.699219;-88.023483;
53390.687500;-88.089485;
54139.675781;-88.121269;
54888.664063;-88.260384;
55637.648438;-88.523247;
56386.640625;-88.587105;
57135.625000;-88.481888;
57884.617188;-88.518532;
58633.601563;-88.565521;
59382.589844;-88.481789;
60131.578125;-88.444183;
60880.566406;-88.508156;
61629.554688;-88.533264;
62378.542969;-88.740662;
63127.531250;-88.890236;
63876.519531;-88.952515;
64625.503906;-88.796921;
65374.492188;-88.701691;
66123.484375;-88.560196;
66872.468750;-88.306625;
67621.453125;-88.143959;
68370.445313;-87.761459;
69119.437500;-87.486191;
69868.421875;-87.446411;
70617.406250;-87.508392;
71366.390625;-87.472923;
72115.382813;-87.367615;
72864.375000;-87.301880;
73613.359375;-87.292389;
74362.343750;-87.215729;
75111.335938;-87.158134;
75860.328125;-87.195648;
76609.312500;-87.273628;
77358.296875;-87.389648;
78107.281250;-87.516098;
78856.273438;-87.761032;
79605.265625;-88.231552;
80354.250000;-88.502426;
81103.234375;-88.413460;
81852.226563;-88.302704;
82601.218750;-88.363258;
83350.203125;-88.508644;
84099.187500;-88.639900;
84848.171875;-88.649208;
85597.164063;-88.731949;
86346.156250;-88.681702;
87095.140625;-88.465683;
87844.125000;-88.282761;
88593.117188;-88.086609;
89342.109375;-88.080948;
90091.093750;-88.029129;
90840.078125;-88.086693;
91589.062500;-88.003395;
92338.054688;-87.809456;
93087.046875;-87.768799;
93836.031250;-87.685593;
94585.023438;-87.677567;
95334.007813;-87.568855;
96082.992188;-87.467026;
96831.984375;-87.323334;
97580.968750;-87.289543;
98329.960938;-87.485207;
99078.945313;-87.645149;
99827.937500;-87.748344;
100000.000000;-87.805443;
100338.718750;-87.753677;
102553.414063;-87.565224;
104768.109375;-87.739746;
106982.796875;-87.987663;
109197.500000;-87.946465;
111412.187500;-87.890129;
113626.882813;-87.777496;
115841.578125;-87.805847;
118056.273438;-87.803192;
120270.968750;-87.811623;
122485.664063;-87.668961;
124700.359375;-87.482590;
126915.054688;-87.388977;
129129.750000;-87.412148;
131344.437500;-87.345825;
133559.140625;-87.222710;
135773.828125;-87.225616;
137988.531250;-87.030945;
140203.218750;-86.937073;
142417.921875;-86.970047;
144632.609375;-87.022774;
146847.312500;-86.978180;
149062.000000;-86.887955;
151276.687500;-86.850327;
153491.390625;-86.821350;
155706.093750;-86.659241;
157920.781250;-86.447212;
160135.468750;-86.343842;
162350.171875;-86.086411;
164564.875000;-85.801399;
166779.562500;-85.702820;
168994.250000;-85.684746;
171208.953125;-85.686646;
173423.656250;-85.647659;
175638.343750;-85.588608;
177853.031250;-85.478851;
180067.718750;-85.403702;
182282.421875;-85.282578;
184497.125000;-85.171967;
186711.812500;-85.087265;
188926.500000;-85.185333;
191141.203125;-85.291199;
193355.906250;-85.214607;
195570.593750;-85.256493;
197785.281250;-85.431351;
199999.984375;-85.542564;
202214.687500;-85.481071;
204429.375000;-85.429825;
206644.062500;-85.369942;
208858.765625;-85.329575;
211073.468750;-85.372528;
213288.156250;-85.358665;
215502.843750;-85.377045;
217717.531250;-85.427246;
219932.234375;-85.511795;
222146.937500;-85.462608;
224361.625000;-85.386719;
226576.312500;-85.420532;
228791.031250;-85.484764;
231005.718750;-85.506912;
233220.406250;-85.452614;
235435.093750;-85.499352;
237649.781250;-85.399368;
239864.500000;-85.318832;
242079.187500;-85.299156;
244293.875000;-85.166733;
246508.562500;-85.099380;
248723.281250;-85.187042;
250937.968750;-85.157257;
253152.656250;-85.081345;
255367.343750;-85.044853;
257582.062500;-85.060204;
259796.750000;-85.047729;
262011.437500;-85.018929;
264226.125000;-84.991852;
266440.843750;-84.885788;
268655.531250;-84.758652;
270870.218750;-84.857414;
273084.906250;-85.080833;
275299.593750;-85.204460;
277514.312500;-85.335014;
279729.000000;-85.391312;
281943.687500;-85.243233;
284158.375000;-85.129974;
286373.093750;-85.186691;
288587.781250;-85.278694;
290802.468750;-85.196495;
293017.156250;-85.181931;
295231.875000;-85.189659;
297446.562500;-85.147736;
299661.250000;-85.282883;
300000.000000;-85.446365;
301720.625000;-85.318642;
309210.531250;-85.201530;
316700.406250;-85.174500;
324190.281250;-85.196907;
331680.156250;-85.242493;
339170.031250;-85.298019;
346659.906250;-85.518616;
354149.781250;-85.574684;
361639.687500;-85.435623;
369129.562500;-85.486214;
376619.437500;-85.540955;
384109.312500;-85.650620;
391599.187500;-85.665977;
399089.062500;-85.597549;
406578.937500;-85.460953;
414068.812500;-85.514450;
421558.687500;-85.601837;
429048.562500;-85.630005;
436538.437500;-85.413925;
444028.312500;-85.191620;
451518.187500;-85.127098;
459008.093750;-85.095863;
466497.968750;-84.997627;
473987.843750;-85.087921;
481477.718750;-85.200203;
488967.625000;-85.229309;
496457.500000;-85.098419;
503947.375000;-85.074371;
511437.250000;-85.173813;
518927.125000;-85.303452;
526417.000000;-85.455490;
533906.875000;-85.351913;
541396.750000;-85.306694;
548886.625000;-85.561996;
556376.500000;-85.883347;
563866.375000;-86.104111;
571356.250000;-86.199295;
578846.125000;-86.388458;
586336.000000;-86.536758;
593825.875000;-86.625092;
601315.750000;-86.686592;
608805.625000;-86.774277;
616295.500000;-86.840897;
623785.375000;-86.780006;
631275.250000;-86.822769;
638765.125000;-86.885139;
646255.062500;-87.070702;
653744.937500;-87.155396;
661234.812500;-87.050850;
668724.687500;-86.968727;
676214.562500;-86.968369;
683704.437500;-86.889236;
691194.312500;-86.798431;
698684.187500;-86.784241;
706174.062500;-86.786919;
713664.000000;-86.861374;
721153.875000;-86.955879;
728643.750000;-86.940964;
736133.625000;-87.024948;
743623.500000;-87.008011;
751113.375000;-86.972626;
758603.250000;-86.968506;
766093.125000;-86.969208;
773583.000000;-87.070656;
781072.875000;-87.219627;
788562.750000;-87.303024;
796052.625000;-87.499146;
803542.500000;-87.639938;
811032.375000;-87.667465;
818522.250000;-87.659637;
826012.125000;-87.680092;
833502.000000;-87.760170;
840991.875000;-87.932068;
848481.750000;-88.088684;
855971.625000;-88.299576;
863461.500000;-88.482574;
870951.375000;-88.658661;
878441.250000;-88.778030;
885931.187500;-88.804077;
893421.062500;-88.731041;
900910.937500;-88.704445;
908400.812500;-88.656197;
915890.687500;-88.792107;
923380.562500;-88.982498;
930870.437500;-88.937866;
938360.312500;-88.657906;
945850.187500;-88.486710;
953340.062500;-88.561485;
960829.937500;-88.491013;
968319.812500;-88.402870;
975809.687500;-88.143906;
983299.562500;-87.888245;
990789.437500;-87.803154;
998279.312500;-87.818825;
1000000.000000;-87.858902;
1003387.187500;-87.792603;
1025534.125000;-87.722694;
1047681.125000;-87.651207;
1069828.000000;-87.623398;
1091975.000000;-87.774872;
1114122.000000;-87.987587;
1136268.875000;-87.982101;
1158415.875000;-87.771042;
1180562.750000;-87.691589;
1202709.750000;-87.537239;
1224856.750000;-87.642059;
1247003.625000;-87.546127;
1269150.625000;-87.351776;
1291297.500000;-87.246613;
1313444.500000;-87.164528;
1335591.500000;-87.082336;
1357738.375000;-87.045021;
1379885.375000;-86.950165;
1402032.250000;-86.763680;
1424179.250000;-86.678856;
1446326.250000;-86.752586;
1468473.250000;-86.866730;
1490620.125000;-87.062973;
1512767.000000;-87.104218;
1534914.000000;-87.128860;
1557061.000000;-87.039101;
1579208.000000;-87.158058;
1601354.875000;-87.358772;
1623501.750000;-87.492867;
1645648.750000;-87.545044;
1667795.750000;-87.669876;
1689942.750000;-87.786682;
1712089.625000;-87.913147;
1734236.500000;-88.075882;
1756383.500000;-88.201248;
1778530.500000;-88.130295;
1800677.500000;-88.189651;
1822824.375000;-88.255478;
1844971.250000;-88.365471;
1867118.250000;-88.583191;
1889265.250000;-88.820206;
1911412.250000;-89.114647;
1933559.125000;-89.367889;
1955706.000000;-89.490356;
1977853.000000;-89.766380;
2000000.000000;-90.092201;
2022147.000000;-90.317680;
2044294.000000;-90.541687;
2066440.750000;-90.861832;
2088587.750000;-91.056793;
2110734.750000;-91.346786;
2132881.750000;-91.748978;
2155028.750000;-92.040955;
2177175.500000;-92.416298;
2199322.500000;-92.886284;
2221469.500000;-93.425064;
2243616.500000;-93.779266;
2265763.500000;-94.036476;
2287910.250000;-94.525574;
2310057.250000;-95.093849;
2332204.250000;-95.541191;
2354351.250000;-95.754684;
2376498.250000;-95.920876;
2398645.000000;-96.503555;
2420792.000000;-97.035156;
2442939.000000;-97.460999;
2465086.000000;-97.742416;
2487233.000000;-97.996796;
2509379.750000;-98.240738;
2531526.750000;-98.446213;
2553673.750000;-98.567268;
2575820.750000;-98.631775;
2597967.750000;-98.824280;
2620114.750000;-99.053535;
2642261.500000;-99.226601;
2664408.500000;-99.478600;
2686555.500000;-99.805466;
2708702.500000;-100.141380;
2730849.500000;-100.254173;
2752996.250000;-100.659225;
2775143.250000;-100.986595;
2797290.250000;-101.205856;
2819437.250000;-101.378220;
2841584.250000;-101.628372;
2863731.000000;-101.930557;
2885878.000000;-102.131126;
2908025.000000;-102.557281;
2930172.000000;-102.725937;
2952319.000000;-102.817528;
2974465.750000;-102.870621;
2996612.750000;-103.163338;
3000000.000000;-103.417854;
3017206.750000;-103.550880;
3092105.500000;-103.837540;
3167004.250000;-104.078232;
3241903.000000;-104.308044;
3316802.000000;-104.462570;
3391700.500000;-104.656227;
3466599.500000;-105.066483;
3541498.250000;-105.469093;
3616397.000000;-105.876274;
3691295.750000;-106.102379;
3766194.500000;-106.482117;
3841093.500000;-107.018280;
3915992.000000;-107.558456;
3990891.000000;-107.999252;
4065789.750000;-108.410301;
4140688.500000;-108.794365;
4215587.500000;-109.017380;
4290486.000000;-109.170395;
4365385.000000;-109.704407;
4440284.000000;-110.515472;
4515182.500000;-110.970772;
4590081.000000;-111.122940;
4664980.000000;-111.258774;
4739879.000000;-111.279572;
4814778.000000;-111.502144;
4889676.500000;-111.843071;
4964575.000000;-112.159966;
5039474.000000;-112.305832;
5114373.000000;-112.299644;
5189271.500000;-112.337189;
5264170.000000;-112.503593;
5339069.000000;-112.662926;
5413968.000000;-112.855598;
5488867.000000;-112.882050;
5563765.500000;-112.765640;
5638664.000000;-112.673431;
5713563.000000;-112.680008;
5788462.000000;-112.807007;
5863361.000000;-112.900505;
5938259.500000;-112.937057;
6013158.000000;-112.902054;
6088057.000000;-112.875992;
6162956.000000;-112.811737;
6237855.000000;-112.790100;
6312753.500000;-112.947739;
6387652.000000;-113.087013;
6462551.000000;-113.102348;
6537450.000000;-113.084984;
6612348.500000;-113.165703;
6687247.000000;-113.371567;
6762146.000000;-113.432587;
6837045.000000;-113.419159;
6911944.000000;-113.513885;
6986843.000000;-113.677521;
7061741.000000;-113.650581;
7136640.000000;-113.581223;
7211539.000000;-113.587883;
7286438.000000;-113.627457;
7361336.000000;-113.788673;
7436235.000000;-113.639236;
7511134.000000;-113.585083;
7586033.000000;-113.694542;
7660932.000000;-113.822357;
7735830.000000;-113.804260;
7810729.000000;-113.648796;
7885628.000000;-113.735397;
7960527.000000;-113.956940;
8035426.000000;-114.113701;
8110324.000000;-114.270920;
8185223.000000;-114.446396;
8260122.000000;-114.646240;
8335021.000000;-114.614929;
8409920.000000;-114.732635;
8484818.000000;-114.901390;
8559717.000000;-115.107582;
8634616.000000;-115.311798;
8709515.000000;-115.490021;
8784413.000000;-115.547348;
8859312.000000;-115.590164;
8934211.000000;-115.872002;
9009110.000000;-115.769203;
9084009.000000;-115.612289;
9158907.000000;-115.533813;
9233806.000000;-115.415504;
9308705.000000;-115.383728;
9383604.000000;-115.418861;
9458503.000000;-115.608398;
9533401.000000;-115.738609;
9608300.000000;-115.744560;
9683199.000000;-115.826263;
9758098.000000;-115.856796;
9832997.000000;-115.908348;
9907895.000000;-116.009148;
9982794.000000;-116.154823;
10000000.000000;-116.313751;
